led-kg5
Integration time [ms]:   0,255
Averaging Nr. [scans]: 100
Smoothing Nr. [pixels]: 0
Data measured with spectrometer [name]: 1403062U1
Wave   ;Sample   ;Dark     ;Reference;Scope Corrected for Dark
[nm]   ;[counts] ;[counts] ;[counts] 

 176,36;   13,520;   -1,990;   -4,940;15,51000
 176,71;    7,700;    2,510;    1,200; 5,19000
 177,05;   11,720;   -6,620;    1,620;18,34000
 177,40;    6,660;   -1,320;    1,160; 7,98000
 177,74;   11,350;    1,740;    1,630; 9,61000
 178,09;   10,360;    2,820;    0,700; 7,54000
 178,43;   10,430;    4,170;   -2,880; 6,26000
 178,78;   10,440;   -2,840;    7,430;13,28000
 179,12;    7,250;    1,090;    2,350; 6,16000
 179,47;    7,130;    5,450;   -1,290; 1,68000
 179,81;    9,920;    0,850;    7,770; 9,07000
 180,16;    9,160;    0,250;   -2,990; 8,91000
 180,50;   12,780;   -0,980;   -1,580;13,76000
 180,85;   17,320;    7,020;   -0,790;10,30000
 181,19;    9,180;    1,680;   -3,310; 7,50000
 181,54;   10,800;   -3,060;   -0,550;13,86000
 181,88;   11,090;    7,780;   -6,480; 3,31000
 182,23;   12,720;   -4,800;   -3,500;17,52000
 182,57;    9,140;    0,930;    0,010; 8,21000
 182,92;   12,140;    4,510;    1,600; 7,63000
 183,26;   13,180;    4,200;    6,460; 8,98000
 183,61;   13,110;    5,830;    5,600; 7,28000
 183,95;   10,060;    7,070;    0,620; 2,99000
 184,30;   12,760;    3,610;    2,620; 9,15000
 184,64;   13,650;   -4,800;    0,860;18,45000
 184,99;   11,200;    1,950;    1,700; 9,25000
 185,33;   12,530;    4,290;    1,640; 8,24000
 185,68;   10,000;    1,740;   -2,140; 8,26000
 186,02;   11,530;   -3,790;    8,470;15,32000
 186,37;    9,870;   -3,660;   -0,240;13,53000
 186,71;   16,430;   -3,210;   -2,180;19,64000
 187,06;   16,700;    3,320;    3,950;13,38000
 187,40;   13,040;    5,190;    3,110; 7,85000
 187,75;   12,750;    0,600;    6,000;12,15000
 188,09;   11,550;    4,390;    2,940; 7,16000
 188,44;   16,840;    2,610;    6,360;14,23000
 188,78;   11,300;    3,390;   -2,530; 7,91000
 189,13;   15,180;   -1,080;    0,290;16,26000
 189,47;   15,610;   -3,040;    2,160;18,65000
 189,82;   10,060;    6,140;   -0,170; 3,92000
 190,16;   12,040;   -1,890;   -0,530;13,93000
 190,51;   16,350;    3,590;   -2,300;12,76000
 190,85;   10,820;    2,380;   -3,190; 8,44000
 191,20;   11,950;    2,760;   -3,450; 9,19000
 191,54;   13,160;   -2,560;   -5,110;15,72000
 191,88;   17,680;    4,150;    3,760;13,53000
 192,23;    9,000;    2,550;   -3,410; 6,45000
 192,57;   11,380;    7,540;    8,440; 3,84000
 192,92;   12,050;   -1,600;   -3,170;13,65000
 193,26;    9,290;    6,800;    8,660; 2,49000
 193,61;   12,150;    0,860;   -6,900;11,29000
 193,95;   16,260;    4,890;    0,280;11,37000
 194,30;   15,890;   -1,090;   -4,090;16,98000
 194,64;   12,930;   -2,190;    4,160;15,12000
 194,99;    8,450;    5,990;    2,080; 2,46000
 195,33;   16,240;    1,730;   -0,800;14,51000
 195,68;   12,870;   -2,730;    0,700;15,60000
 196,02;    9,100;    1,760;    5,190; 7,34000
 196,37;   11,210;   -4,210;    1,300;15,42000
 196,71;   14,530;    2,870;    4,470;11,66000
 197,05;    9,050;   -4,830;   -2,210;13,88000
 197,40;   14,480;    9,870;    3,920; 4,61000
 197,74;   14,920;    5,210;   -1,110; 9,71000
 198,09;   22,240;    7,750;    5,080;14,49000
 198,43;   18,440;    3,540;    2,110;14,90000
 198,78;   14,190;    3,450;    1,580;10,74000
 199,12;   12,950;   -1,970;    0,300;14,92000
 199,47;   16,000;    0,170;    4,730;15,83000
 199,81;   17,230;   -2,950;    2,230;20,18000
 200,16;   11,800;   -3,900;   -2,050;15,70000
 200,50;   11,130;   -1,310;   -0,260;12,44000
 200,84;   13,850;    3,870;    3,170; 9,98000
 201,19;   13,090;   -1,360;    1,890;14,45000
 201,53;    9,390;   -0,350;   -2,770; 9,74000
 201,88;   15,340;   -7,410;    4,320;22,75000
 202,22;   10,780;    6,230;    0,800; 4,55000
 202,57;   16,170;   -2,960;    6,390;19,13000
 202,91;   17,290;    7,560;    2,090; 9,73000
 203,26;   15,400;   -2,760;    1,290;18,16000
 203,60;   16,070;    2,490;    5,630;13,58000
 203,94;   15,450;   -3,000;   -1,070;18,45000
 204,29;   19,020;    9,720;   -0,730; 9,30000
 204,63;   15,610;   -0,230;   -0,090;15,84000
 204,98;   12,090;    4,780;    6,600; 7,31000
 205,32;   16,210;    3,220;   -1,270;12,99000
 205,67;   18,170;    0,060;    4,650;18,11000
 206,01;   13,220;    1,870;    2,660;11,35000
 206,36;   11,770;   -1,060;    7,150;12,83000
 206,70;   13,550;   -1,540;    4,990;15,09000
 207,04;   17,400;   -0,190;    1,580;17,59000
 207,39;   13,000;   -4,560;   -2,780;17,56000
 207,73;   14,670;    3,730;    2,870;10,94000
 208,08;   14,410;    0,000;    0,280;14,41000
 208,42;   13,620;    0,440;    0,400;13,18000
 208,77;    8,870;   -0,300;    1,510; 9,17000
 209,11;   11,940;    5,860;    4,410; 6,08000
 209,45;   15,790;    3,020;   -6,000;12,77000
 209,80;   21,730;    3,130;    2,210;18,60000
 210,14;   18,360;   -3,910;    2,850;22,27000
 210,49;   16,530;    8,130;    0,830; 8,40000
 210,83;   13,760;    5,290;   -0,500; 8,47000
 211,18;    8,460;   -0,330;    1,840; 8,79000
 211,52;   14,200;    0,440;   -2,050;13,76000
 211,86;   16,440;    0,640;   -0,760;15,80000
 212,21;   14,020;    5,140;   -0,850; 8,88000
 212,55;    7,580;    2,560;    0,350; 5,02000
 212,90;   10,170;   -2,920;    5,690;13,09000
 213,24;   10,240;    1,170;   -0,200; 9,07000
 213,59;   12,930;    3,850;    1,370; 9,08000
 213,93;   18,900;   -2,180;   -2,980;21,08000
 214,27;   15,520;    1,980;   -1,450;13,54000
 214,62;   17,180;    4,340;    4,640;12,84000
 214,96;   17,670;    7,600;    0,500;10,07000
 215,31;   17,700;    4,730;    0,660;12,97000
 215,65;   17,010;   -1,950;    0,530;18,96000
 216,00;   15,460;    9,820;    3,700; 5,64000
 216,34;   17,720;   -5,770;    7,630;23,49000
 216,68;   16,130;    1,360;    2,550;14,77000
 217,03;   17,030;   -2,520;   -2,950;19,55000
 217,37;   14,380;   -1,750;    7,880;16,13000
 217,72;   19,580;    2,390;   -3,170;17,19000
 218,06;   12,660;    5,830;    5,030; 6,83000
 218,40;   11,710;    4,860;   -2,040; 6,85000
 218,75;   14,300;    0,520;    2,830;13,78000
 219,09;    8,670;   -2,330;    4,950;11,00000
 219,44;   17,540;    0,850;    1,680;16,69000
 219,78;   16,740;   -6,110;    0,300;22,85000
 220,12;   13,980;    1,860;   -2,360;12,12000
 220,47;   19,730;    1,740;    0,160;17,99000
 220,81;   16,900;    7,670;    1,970; 9,23000
 221,16;   18,210;    1,010;    2,430;17,20000
 221,50;   15,430;   -3,260;    0,030;18,69000
 221,84;   14,260;   -1,290;    4,400;15,55000
 222,19;   17,150;    5,290;   -1,310;11,86000
 222,53;   15,410;    1,180;    7,310;14,23000
 222,88;   19,200;    4,630;    8,230;14,57000
 223,22;   16,750;   -1,170;   -4,200;17,92000
 223,56;   12,790;   -3,660;   11,460;16,45000
 223,91;   12,340;    2,400;   -0,780; 9,94000
 224,25;   14,220;    7,250;    2,120; 6,97000
 224,60;   21,390;    0,460;   -1,480;20,93000
 224,94;   20,980;   -0,840;    3,330;21,82000
 225,28;   14,470;   -3,050;   -1,170;17,52000
 225,63;   17,390;   -0,750;    5,740;18,14000
 225,97;   16,190;    3,490;    1,330;12,70000
 226,32;   24,080;    3,510;   -0,260;20,57000
 226,66;   18,730;    0,040;    5,090;18,69000
 227,00;   13,350;   -0,270;    3,420;13,62000
 227,35;   13,160;    1,730;   -2,020;11,43000
 227,69;   18,450;    0,190;    1,910;18,26000
 228,04;   10,350;   -1,330;   -0,610;11,68000
 228,38;   11,600;    3,580;   -5,470; 8,02000
 228,72;   13,250;   -5,870;   -3,900;19,12000
 229,07;   14,920;    2,060;    0,630;12,86000
 229,41;    9,780;    0,180;   -0,140; 9,60000
 229,75;   10,620;    3,300;    4,380; 7,32000
 230,10;   17,580;    3,900;   -0,170;13,68000
 230,44;   22,260;    4,260;    7,890;18,00000
 230,79;   13,640;    0,920;   -0,360;12,72000
 231,13;   20,940;    7,220;    4,010;13,72000
 231,47;   15,400;    0,750;    3,080;14,65000
 231,82;   15,070;    0,980;    6,400;14,09000
 232,16;   15,360;    2,380;    1,390;12,98000
 232,50;   12,540;    2,580;    1,650; 9,96000
 232,85;   18,090;    3,960;   -2,240;14,13000
 233,19;   17,280;    7,270;    6,400;10,01000
 233,54;   16,830;   -5,030;    9,110;21,86000
 233,88;   19,690;    3,540;   -0,630;16,15000
 234,22;   20,580;    3,910;    3,200;16,67000
 234,57;   18,140;    2,160;   -0,350;15,98000
 234,91;   16,620;    4,860;    3,130;11,76000
 235,25;   24,420;    3,270;    0,820;21,15000
 235,60;    9,960;    2,640;    4,420; 7,32000
 235,94;   16,620;   -1,530;   -1,930;18,15000
 236,29;   12,760;    0,100;   -3,820;12,66000
 236,63;   12,470;    5,530;   -0,440; 6,94000
 236,97;   22,940;   -0,100;    4,160;23,04000
 237,32;   14,930;    7,370;   -3,280; 7,56000
 237,66;   16,360;   -0,040;    7,650;16,40000
 238,00;   16,780;   -2,400;    0,290;19,18000
 238,35;   18,080;    1,380;   -7,850;16,70000
 238,69;   20,600;    1,540;   29,260;19,06000
 239,03;   16,480;    5,070;   65,740;11,41000
 239,38;   17,950;    7,220;    3,060;10,73000
 239,72;   18,080;    4,660;    0,310;13,42000
 240,06;   11,700;    0,710;    2,810;10,99000
 240,41;   15,680;    0,200;    0,290;15,48000
 240,75;   18,920;   -3,610;    2,750;22,53000
 241,10;   18,510;   -0,450;    4,230;18,96000
 241,44;   27,800;    4,100;   -0,270;23,70000
 241,78;   12,820;   -1,180;    3,450;14,00000
 242,13;   23,950;    6,690;   -2,120;17,26000
 242,47;   17,330;    1,060;   -4,250;16,27000
 242,81;   14,000;    4,080;    4,680; 9,92000
 243,16;   14,520;   -3,560;    1,580;18,08000
 243,50;   18,960;    8,210;   -2,120;10,75000
 243,84;   17,520;    3,650;   -1,390;13,87000
 244,19;   25,890;    6,970;    1,600;18,92000
 244,53;   18,320;    5,270;   -0,360;13,05000
 244,87;   12,390;    5,070;    6,880; 7,32000
 245,22;   14,890;   -4,930;    1,260;19,82000
 245,56;   18,260;    5,800;   -5,670;12,46000
 245,90;   20,690;   -6,390;   -2,740;27,08000
 246,25;   19,020;    6,820;    6,490;12,20000
 246,59;   12,200;   -0,570;   -3,700;12,77000
 246,93;   22,450;    2,300;    2,990;20,15000
 247,28;   16,740;   -0,200;    6,300;16,94000
 247,62;   13,360;    2,240;   -1,330;11,12000
 247,96;   23,210;   -1,880;    3,460;25,09000
 248,31;   23,380;    0,810;    0,160;22,57000
 248,65;   17,790;   -1,220;    3,570;19,01000
 248,99;   14,680;    3,160;    2,260;11,52000
 249,34;   20,760;   -3,090;   -0,370;23,85000
 249,68;   19,100;   -2,680;   -2,150;21,78000
 250,02;   19,930;   -1,620;    0,690;21,55000
 250,37;   25,460;    0,220;    4,070;25,24000
 250,71;   24,450;    6,230;    0,790;18,22000
 251,05;   18,130;    5,030;    0,850;13,10000
 251,40;    6,580;  -16,710;    3,460;23,29000
 251,74;   45,590;   33,770;    1,420;11,82000
 252,08;   74,060;   63,240;    1,190;10,82000
 252,43;   25,370;   -0,100;    3,090;25,47000
 252,77;   13,620;   -2,560;   -0,850;16,18000
 253,11;   13,120;    3,410;   -1,730; 9,71000
 253,46;   20,700;    5,340;    3,910;15,36000
 253,80;   16,030;    5,150;    7,110;10,88000
 254,14;   16,480;   -2,210;   -3,160;18,69000
 254,49;   18,540;    5,650;    0,370;12,89000
 254,83;   13,300;    5,200;    6,060; 8,10000
 255,17;   19,740;   -2,830;    0,870;22,57000
 255,52;   17,460;   -3,400;    3,320;20,86000
 255,86;   19,860;    2,290;    3,840;17,57000
 256,20;   15,350;   -2,420;    2,190;17,77000
 256,55;   23,790;    3,960;    6,800;19,83000
 256,89;   22,440;   -1,320;   -0,420;23,76000
 257,23;   16,590;    2,140;    4,740;14,45000
 257,57;   18,270;   -1,120;    0,680;19,39000
 257,92;   16,700;    6,090;    9,660;10,61000
 258,26;   13,710;   -0,790;    9,410;14,50000
 258,60;   14,940;    4,550;    0,980;10,39000
 258,95;    8,820;    5,670;    1,980; 3,15000
 259,29;   14,140;    7,760;    1,870; 6,38000
 259,63;   22,350;   -1,610;    2,470;23,96000
 259,98;   19,850;    1,310;    4,950;18,54000
 260,32;   14,850;    5,910;    3,060; 8,94000
 260,66;   14,440;    2,550;   -0,240;11,89000
 261,01;   23,170;    1,140;   -0,910;22,03000
 261,35;   18,610;    0,430;    2,840;18,18000
 261,69;   11,740;   -2,620;    2,780;14,36000
 262,03;   16,780;    1,470;    1,400;15,31000
 262,38;   15,670;   -2,230;   -3,040;17,90000
 262,72;   25,200;   -0,800;    1,950;26,00000
 263,06;   18,680;   -6,590;    3,560;25,27000
 263,41;   20,920;    2,750;    2,600;18,17000
 263,75;   18,550;    4,650;    2,850;13,90000
 264,09;   18,930;    6,420;   -0,340;12,51000
 264,44;   19,460;   -1,110;   -0,250;20,57000
 264,78;   20,400;    6,300;   -1,930;14,10000
 265,12;   18,140;   -1,580;    5,230;19,72000
 265,46;   21,760;    6,890;    2,600;14,87000
 265,81;   13,560;   -0,810;    1,280;14,37000
 266,15;   16,210;    3,030;    4,320;13,18000
 266,49;    7,860;    1,160;    3,370; 6,70000
 266,84;   19,330;    7,130;    2,340;12,20000
 267,18;   11,790;   -0,760;    0,120;12,55000
 267,52;   23,050;    6,080;   -0,950;16,97000
 267,86;   16,530;    4,370;    0,400;12,16000
 268,21;   24,510;    5,840;    4,770;18,67000
 268,55;   21,380;    2,410;    1,950;18,97000
 268,89;   19,020;   10,360;    8,760; 8,66000
 269,24;   20,240;    0,490;   -1,610;19,75000
 269,58;   22,790;    8,770;    1,950;14,02000
 269,92;   16,540;   -5,160;   -3,810;21,70000
 270,26;   22,060;    3,620;    5,370;18,44000
 270,61;   15,760;   -2,220;    2,330;17,98000
 270,95;   22,290;    3,720;    2,940;18,57000
 271,29;   15,750;   -2,810;   -4,650;18,56000
 271,64;   22,970;   -1,610;   -0,820;24,58000
 271,98;   18,640;   -2,260;    5,320;20,90000
 272,32;   15,630;    8,270;    2,520; 7,36000
 272,66;   12,250;    0,580;    3,640;11,67000
 273,01;   20,080;    2,020;    3,890;18,06000
 273,35;   20,000;   -3,930;   -2,080;23,93000
 273,69;   24,250;    4,290;    7,650;19,96000
 274,03;   16,100;    2,210;   -0,080;13,89000
 274,38;   24,010;   -0,420;    2,800;24,43000
 274,72;   18,060;   -1,470;    0,930;19,53000
 275,06;   21,570;   -3,140;    4,260;24,71000
 275,40;   16,540;   -2,760;    2,190;19,30000
 275,75;   21,340;    4,760;   -1,670;16,58000
 276,09;   21,890;   -0,770;    2,750;22,66000
 276,43;   20,370;    1,290;    3,420;19,08000
 276,78;   20,870;   -0,390;    3,970;21,26000
 277,12;   20,730;   -2,000;    4,080;22,73000
 277,46;   21,060;   -3,820;   -1,400;24,88000
 277,80;   18,440;    1,670;    2,660;16,77000
 278,15;   11,690;   -4,710;    0,990;16,40000
 278,49;   16,010;    2,820;    3,910;13,19000
 278,83;   13,530;   -1,350;   -0,830;14,88000
 279,17;   23,590;    2,350;    7,910;21,24000
 279,52;   20,870;    0,060;    0,670;20,81000
 279,86;   21,720;    1,500;    3,730;20,22000
 280,20;   21,840;   -0,850;   -0,050;22,69000
 280,54;   19,200;    0,020;    4,110;19,18000
 280,89;   14,690;    2,700;    2,930;11,99000
 281,23;   23,600;    6,170;    7,110;17,43000
 281,57;   22,120;    0,410;    3,900;21,71000
 281,91;   21,070;    2,070;    9,620;19,00000
 282,26;   20,170;    0,700;   -0,770;19,47000
 282,60;   26,190;    1,350;    3,260;24,84000
 282,94;   17,390;   -3,140;   -6,700;20,53000
 283,28;   23,340;   -1,650;    8,220;24,99000
 283,63;   22,400;    2,290;    3,300;20,11000
 283,97;   20,910;   -4,090;   -2,370;25,00000
 284,31;   15,510;   -1,030;    1,490;16,54000
 284,65;   21,660;    3,370;    0,930;18,29000
 285,00;   14,550;   -1,510;    0,170;16,06000
 285,34;   25,970;    5,200;    2,250;20,77000
 285,68;   13,040;   -9,450;    4,600;22,49000
 286,02;   18,770;    6,440;    2,930;12,33000
 286,37;   21,910;   -2,720;   -2,100;24,63000
 286,71;   17,240;    0,260;    9,880;16,98000
 287,05;   22,480;    2,020;    0,770;20,46000
 287,39;   23,090;   -5,230;    3,340;28,32000
 287,73;   13,910;    0,980;   -0,150;12,93000
 288,08;   22,910;    8,020;    4,200;14,89000
 288,42;   20,090;    0,220;   -0,810;19,87000
 288,76;   22,540;   -4,560;    1,980;27,10000
 289,10;   22,920;    4,030;   -2,180;18,89000
 289,45;   22,200;    4,230;    2,290;17,97000
 289,79;   19,030;   -2,510;    2,270;21,54000
 290,13;   15,330;    4,020;    7,880;11,31000
 290,47;   24,300;   -3,250;   -1,950;27,55000
 290,82;   18,730;   -2,370;    3,070;21,10000
 291,16;   18,630;   -5,620;   -1,830;24,25000
 291,50;   18,940;    6,570;   -0,810;12,37000
 291,84;   21,730;    6,720;   -1,240;15,01000
 292,18;   27,260;    3,400;    7,510;23,86000
 292,53;   17,560;   -0,920;    2,270;18,48000
 292,87;   23,980;   -0,670;    6,240;24,65000
 293,21;   21,820;    0,680;   -3,400;21,14000
 293,55;   20,200;   -5,030;    7,800;25,23000
 293,90;   26,000;    4,300;    1,580;21,70000
 294,24;   17,600;    3,570;    2,360;14,03000
 294,58;   16,310;   -6,140;   -2,350;22,45000
 294,92;   25,120;    2,430;    4,480;22,69000
 295,26;   17,850;   -5,600;   -0,060;23,45000
 295,61;   17,150;   -3,700;    2,590;20,85000
 295,95;   14,140;   -3,550;    2,900;17,69000
 296,29;   20,470;   -3,340;    2,790;23,81000
 296,63;   23,830;    1,010;    1,350;22,82000
 296,97;   23,550;   -1,790;    3,880;25,34000
 297,32;   23,690;   -2,130;   -4,280;25,82000
 297,66;   23,110;    0,930;   -0,620;22,18000
 298,00;   18,000;   -1,520;    3,450;19,52000
 298,34;   26,940;    5,060;    0,800;21,88000
 298,69;   14,440;    2,820;    2,400;11,62000
 299,03;   20,240;   -4,000;    1,820;24,24000
 299,37;   20,840;   -2,050;   -0,940;22,89000
 299,71;   18,910;   -0,060;   -1,460;18,97000
 300,05;   24,180;    2,230;   -0,590;21,95000
 300,40;   22,450;    3,650;    5,780;18,80000
 300,74;   19,580;    2,520;    3,080;17,06000
 301,08;   22,800;    2,150;    9,750;20,65000
 301,42;   19,460;   -0,770;    0,430;20,23000
 301,76;   21,980;    0,770;    3,560;21,21000
 302,11;   21,370;   -1,950;    1,560;23,32000
 302,45;   26,620;   -4,630;    3,060;31,25000
 302,79;   17,370;   -3,190;   -0,070;20,56000
 303,13;   26,620;    2,900;    0,920;23,72000
 303,47;   22,860;    1,780;    2,590;21,08000
 303,81;   16,900;    4,320;    6,370;12,58000
 304,16;   24,460;   -5,410;    0,950;29,87000
 304,50;   15,490;    7,380;    5,220; 8,11000
 304,84;   13,760;   -6,790;    3,500;20,55000
 305,18;   17,720;    4,920;    3,990;12,80000
 305,52;   21,370;    6,110;    0,240;15,26000
 305,87;   21,150;   -0,510;   -3,520;21,66000
 306,21;   15,070;    3,850;   -4,610;11,22000
 306,55;   22,880;    1,780;    2,670;21,10000
 306,89;   25,360;    2,950;    2,350;22,41000
 307,23;   21,310;    6,360;    1,320;14,95000
 307,58;   20,720;   -1,910;    1,880;22,63000
 307,92;   18,490;    2,260;    4,640;16,23000
 308,26;   23,030;   -2,240;   -1,550;25,27000
 308,60;   25,420;    2,620;    1,660;22,80000
 308,94;   18,070;    3,640;   -0,860;14,43000
 309,28;   22,900;    1,350;    3,500;21,55000
 309,63;   20,990;   -0,900;   -2,560;21,89000
 309,97;   25,780;    1,020;   10,570;24,76000
 310,31;   25,070;    1,340;   -0,100;23,73000
 310,65;   20,110;    1,290;    3,820;18,82000
 310,99;   17,840;   -1,230;    2,240;19,07000
 311,33;   25,090;    1,290;    2,420;23,80000
 311,68;   25,360;   -2,370;    0,600;27,73000
 312,02;   26,550;    1,980;  -15,330;24,57000
 312,36;   25,540;   -2,070;   23,440;27,61000
 312,70;   23,840;    6,510;   61,440;17,33000
 313,04;   16,160;   -2,050;    1,810;18,21000
 313,38;   27,410;   -3,640;   -3,880;31,05000
 313,73;   18,970;    0,310;   -2,470;18,66000
 314,07;   27,590;   10,250;    5,190;17,34000
 314,41;   17,150;   -1,580;    4,040;18,73000
 314,75;   28,460;   -2,070;    5,810;30,53000
 315,09;   21,620;    5,610;    1,100;16,01000
 315,43;   20,570;    3,730;    5,490;16,84000
 315,78;   22,680;    2,900;    0,860;19,78000
 316,12;   23,080;    2,090;    5,920;20,99000
 316,46;   17,500;   -8,560;    5,510;26,06000
 316,80;   18,130;    5,210;    1,790;12,92000
 317,14;   21,970;    5,860;    3,890;16,11000
