xe-kg5
Integration time [ms]:   1,571
Averaging Nr. [scans]: 100
Smoothing Nr. [pixels]: 0
Data measured with spectrometer [name]: 1403062U1
Wave   ;Sample   ;Dark     ;Reference;Scope Corrected for Dark
[nm]   ;[counts] ;[counts] ;[counts] 

 176,36;   15,750;   -1,680;   -4,940;17,43000
 176,71;   15,050;    0,970;    1,200;14,08000
 177,05;   10,630;    1,880;    1,620; 8,75000
 177,40;   16,600;    1,540;    1,160;15,06000
 177,74;    4,920;   -1,260;    1,630; 6,18000
 178,09;   12,800;    1,980;    0,700;10,82000
 178,43;   13,770;   -0,420;   -2,880;14,19000
 178,78;   12,660;    0,770;    7,430;11,89000
 179,12;   11,970;    4,190;    2,350; 7,78000
 179,47;   15,730;    0,330;   -1,290;15,40000
 179,81;    8,990;    5,060;    7,770; 3,93000
 180,16;   18,650;    5,230;   -2,990;13,42000
 180,50;    8,780;    4,680;   -1,580; 4,10000
 180,85;    9,170;   -1,360;   -0,790;10,53000
 181,19;   13,680;    2,540;   -3,310;11,14000
 181,54;   13,580;    2,570;   -0,550;11,01000
 181,88;   15,840;    4,730;   -6,480;11,11000
 182,23;   12,660;    3,980;   -3,500; 8,68000
 182,57;    7,750;   -6,510;    0,010;14,26000
 182,92;   15,220;   -1,850;    1,600;17,07000
 183,26;   12,510;   -1,710;    6,460;14,22000
 183,61;   15,340;   -2,030;    5,600;17,37000
 183,95;    5,230;   -3,570;    0,620; 8,80000
 184,30;   19,040;   -2,540;    2,620;21,58000
 184,64;   14,580;   -2,830;    0,860;17,41000
 184,99;   15,920;   -0,890;    1,700;16,81000
 185,33;    6,380;   -0,150;    1,640; 6,53000
 185,68;   12,380;    7,170;   -2,140; 5,21000
 186,02;   20,800;   -6,680;    8,470;27,48000
 186,37;   15,870;   -0,160;   -0,240;16,03000
 186,71;    7,400;    0,470;   -2,180; 6,93000
 187,06;   22,110;    2,400;    3,950;19,71000
 187,40;    9,260;   -1,030;    3,110;10,29000
 187,75;   18,130;    1,610;    6,000;16,52000
 188,09;   10,880;   -0,430;    2,940;11,31000
 188,44;   18,910;    0,610;    6,360;18,30000
 188,78;    5,800;    4,770;   -2,530; 1,03000
 189,13;   17,810;    3,820;    0,290;13,99000
 189,47;   11,180;   -3,790;    2,160;14,97000
 189,82;   16,270;    1,430;   -0,170;14,84000
 190,16;   18,100;    1,060;   -0,530;17,04000
 190,51;   23,030;   -0,130;   -2,300;23,16000
 190,85;   13,180;    3,490;   -3,190; 9,69000
 191,20;   18,640;   -0,470;   -3,450;19,11000
 191,54;   16,740;    1,380;   -5,110;15,36000
 191,88;   15,720;   -2,520;    3,760;18,24000
 192,23;    9,790;   -1,560;   -3,410;11,35000
 192,57;   16,540;   -1,950;    8,440;18,49000
 192,92;    9,090;    0,490;   -3,170; 8,60000
 193,26;   13,630;    1,130;    8,660;12,50000
 193,61;    8,230;    2,390;   -6,900; 5,84000
 193,95;   21,420;    1,080;    0,280;20,34000
 194,30;   14,570;   -1,620;   -4,090;16,19000
 194,64;   15,060;   -1,570;    4,160;16,63000
 194,99;   16,820;    0,850;    2,080;15,97000
 195,33;   13,480;    3,030;   -0,800;10,45000
 195,68;   11,880;   -0,230;    0,700;12,11000
 196,02;   15,840;   -2,150;    5,190;17,99000
 196,37;   15,920;   -1,000;    1,300;16,92000
 196,71;   17,740;    2,780;    4,470;14,96000
 197,05;    9,980;    2,320;   -2,210; 7,66000
 197,40;   22,720;    2,950;    3,920;19,77000
 197,74;   10,500;    2,460;   -1,110; 8,04000
 198,09;   16,300;    0,250;    5,080;16,05000
 198,43;   18,080;    4,920;    2,110;13,16000
 198,78;   11,010;   -4,480;    1,580;15,49000
 199,12;   14,100;   -4,470;    0,300;18,57000
 199,47;   17,350;   -2,580;    4,730;19,93000
 199,81;   14,280;    2,270;    2,230;12,01000
 200,16;   14,190;   -2,680;   -2,050;16,87000
 200,50;   13,520;   -3,510;   -0,260;17,03000
 200,84;   24,410;    3,240;    3,170;21,17000
 201,19;   21,060;    1,760;    1,890;19,30000
 201,53;   14,700;   -1,180;   -2,770;15,88000
 201,88;   14,130;   -1,230;    4,320;15,36000
 202,22;   12,440;    0,470;    0,800;11,97000
 202,57;   17,250;   -4,050;    6,390;21,30000
 202,91;   12,680;   -0,600;    2,090;13,28000
 203,26;   15,070;    3,360;    1,290;11,71000
 203,60;   16,770;    1,750;    5,630;15,02000
 203,94;   24,550;    0,190;   -1,070;24,36000
 204,29;   21,530;    3,140;   -0,730;18,39000
 204,63;    9,390;    5,010;   -0,090; 4,38000
 204,98;   20,510;   -4,500;    6,600;25,01000
 205,32;   13,530;    6,260;   -1,270; 7,27000
 205,67;   19,750;    0,300;    4,650;19,45000
 206,01;   14,110;   -3,870;    2,660;17,98000
 206,36;   14,420;   -3,910;    7,150;18,33000
 206,70;   15,270;    0,840;    4,990;14,43000
 207,04;   18,180;   -8,930;    1,580;27,11000
 207,39;   11,980;   -9,930;   -2,780;21,91000
 207,73;   18,020;    5,020;    2,870;13,00000
 208,08;   11,740;   -2,250;    0,280;13,99000
 208,42;   15,480;   -3,960;    0,400;19,44000
 208,77;   15,120;   -6,680;    1,510;21,80000
 209,11;   22,330;   -1,400;    4,410;23,73000
 209,45;   16,070;   -1,610;   -6,000;17,68000
 209,80;   18,170;   -2,640;    2,210;20,81000
 210,14;   17,400;   -1,610;    2,850;19,01000
 210,49;   16,420;    6,300;    0,830;10,12000
 210,83;   14,180;    1,110;   -0,500;13,07000
 211,18;   24,090;   -0,550;    1,840;24,64000
 211,52;   15,520;   -7,530;   -2,050;23,05000
 211,86;   16,630;    1,350;   -0,760;15,28000
 212,21;   17,730;    1,580;   -0,850;16,15000
 212,55;   18,670;    1,260;    0,350;17,41000
 212,90;   16,230;   -1,840;    5,690;18,07000
 213,24;   28,590;   -5,320;   -0,200;33,91000
 213,59;   23,510;    3,110;    1,370;20,40000
 213,93;   16,020;    0,180;   -2,980;15,84000
 214,27;   21,370;    2,720;   -1,450;18,65000
 214,62;   14,940;    2,770;    4,640;12,17000
 214,96;   14,350;    5,600;    0,500; 8,75000
 215,31;   20,220;   -0,510;    0,660;20,73000
 215,65;   16,450;   -3,300;    0,530;19,75000
 216,00;   23,630;    0,660;    3,700;22,97000
 216,34;    9,770;   -2,680;    7,630;12,45000
 216,68;   18,980;   -0,360;    2,550;19,34000
 217,03;   11,720;    1,730;   -2,950; 9,99000
 217,37;   22,020;    1,830;    7,880;20,19000
 217,72;   15,760;   -1,150;   -3,170;16,91000
 218,06;   16,180;    3,880;    5,030;12,30000
 218,40;   12,520;    2,050;   -2,040;10,47000
 218,75;   22,000;   -2,330;    2,830;24,33000
 219,09;   15,050;   -2,310;    4,950;17,36000
 219,44;   20,380;    2,650;    1,680;17,73000
 219,78;   12,070;   -0,370;    0,300;12,44000
 220,12;   21,900;    0,020;   -2,360;21,88000
 220,47;   15,130;   -0,210;    0,160;15,34000
 220,81;   19,530;    1,770;    1,970;17,76000
 221,16;   10,950;    6,790;    2,430; 4,16000
 221,50;   26,480;   -3,330;    0,030;29,81000
 221,84;   17,790;   -0,920;    4,400;18,71000
 222,19;   18,760;    2,190;   -1,310;16,57000
 222,53;   17,140;    0,080;    7,310;17,06000
 222,88;   18,060;   -0,380;    8,230;18,44000
 223,22;   13,420;    7,170;   -4,200; 6,25000
 223,56;   19,730;    4,630;   11,460;15,10000
 223,91;   14,420;   -1,850;   -0,780;16,27000
 224,25;   18,140;    5,590;    2,120;12,55000
 224,60;   17,880;    0,510;   -1,480;17,37000
 224,94;   22,420;   -1,020;    3,330;23,44000
 225,28;   20,190;   -0,270;   -1,170;20,46000
 225,63;   21,410;   -6,880;    5,740;28,29000
 225,97;   13,630;   -2,360;    1,330;15,99000
 226,32;   17,910;   -4,330;   -0,260;22,24000
 226,66;   14,780;   -7,350;    5,090;22,13000
 227,00;   19,250;    0,790;    3,420;18,46000
 227,35;   18,700;   -0,040;   -2,020;18,74000
 227,69;   21,640;   -2,440;    1,910;24,08000
 228,04;   16,020;   -3,320;   -0,610;19,34000
 228,38;   23,490;   -6,930;   -5,470;30,42000
 228,72;   16,240;    4,010;   -3,900;12,23000
 229,07;   21,580;    1,090;    0,630;20,49000
 229,41;   17,590;    0,690;   -0,140;16,90000
 229,75;   17,220;    5,250;    4,380;11,97000
 230,10;   13,510;    1,150;   -0,170;12,36000
 230,44;   19,780;    3,190;    7,890;16,59000
 230,79;   22,070;   -2,320;   -0,360;24,39000
 231,13;   18,740;    0,500;    4,010;18,24000
 231,47;   21,410;    5,170;    3,080;16,24000
 231,82;   26,030;    4,750;    6,400;21,28000
 232,16;   18,720;    1,060;    1,390;17,66000
 232,50;   17,030;    1,020;    1,650;16,01000
 232,85;   13,540;   -2,000;   -2,240;15,54000
 233,19;   23,820;    0,280;    6,400;23,54000
 233,54;   21,160;   -1,900;    9,110;23,06000
 233,88;   15,090;    5,730;   -0,630; 9,36000
 234,22;   19,960;    3,570;    3,200;16,39000
 234,57;   19,490;    1,000;   -0,350;18,49000
 234,91;   18,860;   -1,010;    3,130;19,87000
 235,25;   11,830;    0,820;    0,820;11,01000
 235,60;   18,860;    0,090;    4,420;18,77000
 235,94;   16,480;   -4,220;   -1,930;20,70000
 236,29;   19,530;   -6,810;   -3,820;26,34000
 236,63;   23,890;    1,680;   -0,440;22,21000
 236,97;   13,270;    3,160;    4,160;10,11000
 237,32;   26,650;    3,410;   -3,280;23,24000
 237,66;   15,840;    7,420;    7,650; 8,42000
 238,00;   20,040;    1,770;    0,290;18,27000
 238,35;   20,700;   -2,610;   -7,850;23,31000
 238,69;   19,980;    5,740;   29,260;14,24000
 239,03;   14,420;   -0,120;   65,740;14,54000
 239,38;   16,530;   -2,220;    3,060;18,75000
 239,72;   16,750;   -3,180;    0,310;19,93000
 240,06;   20,770;   -2,940;    2,810;23,71000
 240,41;   13,540;    0,670;    0,290;12,87000
 240,75;   23,510;    5,070;    2,750;18,44000
 241,10;   20,960;   -7,380;    4,230;28,34000
 241,44;   14,780;    3,020;   -0,270;11,76000
 241,78;   13,610;   -6,130;    3,450;19,74000
 242,13;   20,800;   -3,590;   -2,120;24,39000
 242,47;   20,420;    4,880;   -4,250;15,54000
 242,81;   20,500;    2,220;    4,680;18,28000
 243,16;   15,900;   -1,210;    1,580;17,11000
 243,50;   21,490;    0,500;   -2,120;20,99000
 243,84;   18,050;   -0,710;   -1,390;18,76000
 244,19;   21,440;    5,840;    1,600;15,60000
 244,53;   17,140;    2,820;   -0,360;14,32000
 244,87;   24,650;    2,190;    6,880;22,46000
 245,22;   18,620;    0,520;    1,260;18,10000
 245,56;   25,100;   -1,040;   -5,670;26,14000
 245,90;   13,400;   -2,040;   -2,740;15,44000
 246,25;   30,530;   -0,790;    6,490;31,32000
 246,59;   16,770;    2,590;   -3,700;14,18000
 246,93;   21,840;   -2,460;    2,990;24,30000
 247,28;   21,580;    2,960;    6,300;18,62000
 247,62;   24,120;   -3,350;   -1,330;27,47000
 247,96;   21,640;   -1,370;    3,460;23,01000
 248,31;   26,390;    4,640;    0,160;21,75000
 248,65;   14,620;   -2,480;    3,570;17,10000
 248,99;   19,030;    2,980;    2,260;16,05000
 249,34;   12,130;    1,680;   -0,370;10,45000
 249,68;   24,210;   -2,100;   -2,150;26,31000
 250,02;   21,910;    0,800;    0,690;21,11000
 250,37;   26,760;   -3,820;    4,070;30,58000
 250,71;   19,390;    8,080;    0,790;11,31000
 251,05;   16,440;   -8,510;    0,850;24,95000
 251,40;   19,400;    0,870;    3,460;18,53000
 251,74;   14,910;    6,920;    1,420; 7,99000
 252,08;   24,380;   -3,860;    1,190;28,24000
 252,43;   21,750;    4,350;    3,090;17,40000
 252,77;   24,030;   -3,840;   -0,850;27,87000
 253,11;   21,810;   -1,730;   -1,730;23,54000
 253,46;   24,020;    3,530;    3,910;20,49000
 253,80;   22,440;   -1,400;    7,110;23,84000
 254,14;   22,280;    3,490;   -3,160;18,79000
 254,49;   22,810;   -1,050;    0,370;23,86000
 254,83;   19,780;   -7,270;    6,060;27,05000
 255,17;   22,380;   -1,230;    0,870;23,61000
 255,52;   22,710;   -5,730;    3,320;28,44000
 255,86;   14,880;    0,010;    3,840;14,87000
 256,20;   18,750;   -0,670;    2,190;19,42000
 256,55;   23,200;    3,140;    6,800;20,06000
 256,89;   13,910;    1,680;   -0,420;12,23000
 257,23;   21,980;   -3,410;    4,740;25,39000
 257,57;   18,250;    3,540;    0,680;14,71000
 257,92;   24,340;    4,890;    9,660;19,45000
 258,26;   18,890;   -4,060;    9,410;22,95000
 258,60;   27,040;    2,480;    0,980;24,56000
 258,95;   17,670;    1,570;    1,980;16,10000
 259,29;   24,250;    3,670;    1,870;20,58000
 259,63;   18,570;   -4,430;    2,470;23,00000
 259,98;   21,820;   -2,210;    4,950;24,03000
 260,32;   17,830;    3,100;    3,060;14,73000
 260,66;   17,400;   -2,500;   -0,240;19,90000
 261,01;   18,320;    2,940;   -0,910;15,38000
 261,35;   19,620;   -3,890;    2,840;23,51000
 261,69;   16,960;   -2,560;    2,780;19,52000
 262,03;   15,320;   -0,190;    1,400;15,51000
 262,38;   18,550;    3,470;   -3,040;15,08000
 262,72;   23,590;    1,410;    1,950;22,18000
 263,06;   20,350;    0,100;    3,560;20,25000
 263,41;   26,930;   -1,350;    2,600;28,28000
 263,75;   19,240;   -5,040;    2,850;24,28000
 264,09;   17,700;   -4,180;   -0,340;21,88000
 264,44;   27,340;    3,310;   -0,250;24,03000
 264,78;   19,960;   -1,850;   -1,930;21,81000
 265,12;   19,640;    4,960;    5,230;14,68000
 265,46;   21,200;    0,600;    2,600;20,60000
 265,81;   24,520;    3,190;    1,280;21,33000
 266,15;   18,840;    4,770;    4,320;14,07000
 266,49;   14,660;    5,660;    3,370; 9,00000
 266,84;   23,670;    0,280;    2,340;23,39000
 267,18;   15,820;   -6,410;    0,120;22,23000
 267,52;   20,800;    1,350;   -0,950;19,45000
 267,86;   20,130;   -1,210;    0,400;21,34000
 268,21;   25,480;   -1,260;    4,770;26,74000
 268,55;   18,230;   -1,130;    1,950;19,36000
 268,89;   22,320;    2,400;    8,760;19,92000
 269,24;   25,190;   -1,920;   -1,610;27,11000
 269,58;   22,670;    5,420;    1,950;17,25000
 269,92;   22,580;    2,840;   -3,810;19,74000
 270,26;   23,280;    5,060;    5,370;18,22000
 270,61;   17,100;   -0,230;    2,330;17,33000
 270,95;   24,230;    6,130;    2,940;18,10000
 271,29;   22,760;   -1,890;   -4,650;24,65000
 271,64;   20,020;   -4,970;   -0,820;24,99000
 271,98;   18,460;    3,740;    5,320;14,72000
 272,32;   27,610;    0,780;    2,520;26,83000
 272,66;   23,710;   -4,700;    3,640;28,41000
 273,01;   21,670;   -4,680;    3,890;26,35000
 273,35;   20,290;   -8,380;   -2,080;28,67000
 273,69;   19,270;   -5,160;    7,650;24,43000
 274,03;   17,270;   -0,120;   -0,080;17,39000
 274,38;   19,700;   -0,040;    2,800;19,74000
 274,72;   13,790;   -2,720;    0,930;16,51000
 275,06;   17,510;   -0,860;    4,260;18,37000
 275,40;   19,190;   -4,350;    2,190;23,54000
 275,75;   21,790;   -2,680;   -1,670;24,47000
 276,09;   18,620;   -1,000;    2,750;19,62000
 276,43;   25,220;    2,560;    3,420;22,66000
 276,78;   14,940;   -0,680;    3,970;15,62000
 277,12;   26,810;   -2,700;    4,080;29,51000
 277,46;   21,310;    4,040;   -1,400;17,27000
 277,80;   17,140;   -3,990;    2,660;21,13000
 278,15;   22,040;    0,790;    0,990;21,25000
 278,49;   20,760;    2,880;    3,910;17,88000
 278,83;   19,130;    1,330;   -0,830;17,80000
 279,17;   25,910;    2,210;    7,910;23,70000
 279,52;   25,360;   -7,710;    0,670;33,07000
 279,86;   23,380;   -1,780;    3,730;25,16000
 280,20;   21,620;   -0,930;   -0,050;22,55000
 280,54;   27,660;    0,750;    4,110;26,91000
 280,89;   17,070;    2,780;    2,930;14,29000
 281,23;   22,010;   -2,950;    7,110;24,96000
 281,57;   22,470;   -3,420;    3,900;25,89000
 281,91;   21,160;    3,190;    9,620;17,97000
 282,26;   20,850;    0,600;   -0,770;20,25000
 282,60;   23,790;    0,530;    3,260;23,26000
 282,94;   21,840;   -4,930;   -6,700;26,77000
 283,28;   24,030;    0,510;    8,220;23,52000
 283,63;   24,460;   -1,720;    3,300;26,18000
 283,97;   27,540;    4,800;   -2,370;22,74000
 284,31;   17,460;   -2,080;    1,490;19,54000
 284,65;   21,900;   -1,330;    0,930;23,23000
 285,00;   20,940;   -0,720;    0,170;21,66000
 285,34;   25,390;   -5,460;    2,250;30,85000
 285,68;   25,260;    5,930;    4,600;19,33000
 286,02;   29,060;    2,050;    2,930;27,01000
 286,37;   20,720;    1,840;   -2,100;18,88000
 286,71;   31,220;    0,130;    9,880;31,09000
 287,05;   23,230;    4,750;    0,770;18,48000
 287,39;   27,540;   -2,940;    3,340;30,48000
 287,73;   19,880;    1,660;   -0,150;18,22000
 288,08;   27,630;    8,490;    4,200;19,14000
 288,42;   23,600;   -2,840;   -0,810;26,44000
 288,76;   29,280;   -0,210;    1,980;29,49000
 289,10;   26,000;   -1,230;   -2,180;27,23000
 289,45;   32,080;    1,800;    2,290;30,28000
 289,79;   23,370;    0,110;    2,270;23,26000
 290,13;   24,270;   -2,760;    7,880;27,03000
 290,47;   27,170;    0,320;   -1,950;26,85000
 290,82;   31,470;    2,800;    3,070;28,67000
 291,16;   21,600;    2,370;   -1,830;19,23000
 291,50;   32,210;   -1,740;   -0,810;33,95000
 291,84;   24,160;    6,150;   -1,240;18,01000
 292,18;   34,030;    2,720;    7,510;31,31000
 292,53;   31,650;   -3,380;    2,270;35,03000
 292,87;   26,040;   -8,210;    6,240;34,25000
 293,21;   25,910;   -6,380;   -3,400;32,29000
 293,55;   26,950;    0,060;    7,800;26,89000
 293,90;   33,880;    2,300;    1,580;31,58000
 294,24;   29,390;    0,430;    2,360;28,96000
 294,58;   26,260;    4,300;   -2,350;21,96000
 294,92;   36,170;   -1,710;    4,480;37,88000
 295,26;   33,670;   -3,490;   -0,060;37,16000
 295,61;   34,370;    4,230;    2,590;30,14000
 295,95;   30,470;    4,020;    2,900;26,45000
 296,29;   45,390;    9,360;    2,790;36,03000
 296,63;   50,820;    3,120;    1,350;47,70000
 296,97;   48,390;    0,130;    3,880;48,26000
 297,32;   47,340;   -4,260;   -4,280;51,60000
 297,66;   52,040;    4,560;   -0,620;47,48000
 298,00;   46,980;    1,400;    3,450;45,58000
 298,34;   57,210;   -2,880;    0,800;60,09000
 298,69;   56,120;    3,150;    2,400;52,97000
 299,03;   60,550;    0,610;    1,820;59,94000
 299,37;   64,940;   -3,290;   -0,940;68,23000
 299,71;   70,220;    0,480;   -1,460;69,74000
 300,05;   71,390;    1,360;   -0,590;70,03000
 300,40;   78,230;   -2,810;    5,780;81,04000
 300,74;   81,650;    0,620;    3,080;81,03000
 301,08;   83,230;   -2,410;    9,750;85,64000
 301,42;   92,290;    0,030;    0,430;92,26000
 301,76;   91,050;   -0,040;    3,560;91,09000
 302,11;   98,720;    2,500;    1,560;96,22000
 302,45;  104,260;    6,460;    3,060;97,80000
 302,79;  114,190;    7,480;   -0,070;106,71000
 303,13;  116,840;   -1,000;    0,920;117,84000
 303,47;  119,530;   -4,150;    2,590;123,68000
 303,81;  118,130;   -0,860;    6,370;118,99000
 304,16;  132,100;   -0,610;    0,950;132,71000
 304,50;  140,290;   -5,660;    5,220;145,95000
 304,84;  141,040;    6,440;    3,500;134,60000
 305,18;  150,990;   -1,250;    3,990;152,24000
 305,52;  160,520;    2,210;    0,240;158,31000
 305,87;  165,020;    0,610;   -3,520;164,41000
 306,21;  169,410;   -3,150;   -4,610;172,56000
 306,55;  179,060;   -1,600;    2,670;180,66000
 306,89;  191,760;    1,130;    2,350;190,63000
 307,23;  205,130;    1,720;    1,320;203,41000
 307,58;  201,210;   -0,810;    1,880;202,02000
 307,92;  212,420;   -0,410;    4,640;212,83000
 308,26;  221,600;   -6,760;   -1,550;228,36000
 308,60;  227,470;   -4,440;    1,660;231,91000
 308,94;  237,750;   -2,500;   -0,860;240,25000
 309,28;  254,530;    4,170;    3,500;250,36000
 309,63;  252,620;   -3,270;   -2,560;255,89000
 309,97;  272,320;   -2,380;   10,570;274,70000
 310,31;  275,590;    1,040;   -0,100;274,55000
 310,65;  284,070;   -0,430;    3,820;284,50000
 310,99;  296,000;   -0,530;    2,240;296,53000
 311,33;  299,990;   -3,690;    2,420;303,68000
 311,68;  317,750;   -1,170;    0,600;318,92000
 312,02;  317,310;    1,480;  -15,330;315,83000
 312,36;  331,400;   -1,200;   23,440;332,60000
 312,70;  337,360;    0,750;   61,440;336,61000
 313,04;  348,620;    1,470;    1,810;347,15000
 313,38;  350,990;   -5,760;   -3,880;356,75000
 313,73;  361,490;   -5,440;   -2,470;366,93000
 314,07;  373,530;    0,820;    5,190;372,71000
 314,41;  378,690;    1,040;    4,040;377,65000
 314,75;  391,830;    4,640;    5,810;387,19000
 315,09;  387,520;    0,590;    1,100;386,93000
 315,43;  388,510;    3,330;    5,490;385,18000
 315,78;  400,220;   -3,260;    0,860;403,48000
 316,12;  406,430;    5,460;    5,920;400,97000
 316,46;  416,240;    3,990;    5,510;412,25000
 316,80;  423,040;   -0,960;    1,790;424,00000
