xe-unfiltered
Integration time [ms]:   1,571
Averaging Nr. [scans]: 100
Smoothing Nr. [pixels]: 0
Data measured with spectrometer [name]: 1403062U1
Wave   ;Sample   ;Dark     ;Reference;Scope Corrected for Dark
[nm]   ;[counts] ;[counts] ;[counts] 

 176,36;   30,750;   -1,680;   -4,940;32,43000
 176,71;   25,020;    0,970;    1,200;24,05000
 177,05;   25,030;    1,880;    1,620;23,15000
 177,40;   28,720;    1,540;    1,160;27,18000
 177,74;   21,710;   -1,260;    1,630;22,97000
 178,09;   30,080;    1,980;    0,700;28,10000
 178,43;   25,280;   -0,420;   -2,880;25,70000
 178,78;   28,170;    0,770;    7,430;27,40000
 179,12;   28,580;    4,190;    2,350;24,39000
 179,47;   31,590;    0,330;   -1,290;31,26000
 179,81;   28,970;    5,060;    7,770;23,91000
 180,16;   26,190;    5,230;   -2,990;20,96000
 180,50;   28,440;    4,680;   -1,580;23,76000
 180,85;   28,700;   -1,360;   -0,790;30,06000
 181,19;   24,990;    2,540;   -3,310;22,45000
 181,54;   30,330;    2,570;   -0,550;27,76000
 181,88;   25,380;    4,730;   -6,480;20,65000
 182,23;   30,750;    3,980;   -3,500;26,77000
 182,57;   22,930;   -6,510;    0,010;29,44000
 182,92;   23,500;   -1,850;    1,600;25,35000
 183,26;   24,160;   -1,710;    6,460;25,87000
 183,61;   29,770;   -2,030;    5,600;31,80000
 183,95;   22,920;   -3,570;    0,620;26,49000
 184,30;   26,060;   -2,540;    2,620;28,60000
 184,64;   26,450;   -2,830;    0,860;29,28000
 184,99;   30,010;   -0,890;    1,700;30,90000
 185,33;   24,430;   -0,150;    1,640;24,58000
 185,68;   24,190;    7,170;   -2,140;17,02000
 186,02;   27,820;   -6,680;    8,470;34,50000
 186,37;   30,080;   -0,160;   -0,240;30,24000
 186,71;   25,460;    0,470;   -2,180;24,99000
 187,06;   28,910;    2,400;    3,950;26,51000
 187,40;   26,720;   -1,030;    3,110;27,75000
 187,75;   26,710;    1,610;    6,000;25,10000
 188,09;   26,150;   -0,430;    2,940;26,58000
 188,44;   21,090;    0,610;    6,360;20,48000
 188,78;   34,420;    4,770;   -2,530;29,65000
 189,13;   27,870;    3,820;    0,290;24,05000
 189,47;   26,620;   -3,790;    2,160;30,41000
 189,82;   28,700;    1,430;   -0,170;27,27000
 190,16;   37,000;    1,060;   -0,530;35,94000
 190,51;   26,800;   -0,130;   -2,300;26,93000
 190,85;   28,970;    3,490;   -3,190;25,48000
 191,20;   26,220;   -0,470;   -3,450;26,69000
 191,54;   35,180;    1,380;   -5,110;33,80000
 191,88;   28,420;   -2,520;    3,760;30,94000
 192,23;   27,080;   -1,560;   -3,410;28,64000
 192,57;   31,810;   -1,950;    8,440;33,76000
 192,92;   23,310;    0,490;   -3,170;22,82000
 193,26;   29,980;    1,130;    8,660;28,85000
 193,61;   28,930;    2,390;   -6,900;26,54000
 193,95;   39,390;    1,080;    0,280;38,31000
 194,30;   32,910;   -1,620;   -4,090;34,53000
 194,64;   32,170;   -1,570;    4,160;33,74000
 194,99;   32,620;    0,850;    2,080;31,77000
 195,33;   38,710;    3,030;   -0,800;35,68000
 195,68;   30,100;   -0,230;    0,700;30,33000
 196,02;   26,330;   -2,150;    5,190;28,48000
 196,37;   36,230;   -1,000;    1,300;37,23000
 196,71;   28,660;    2,780;    4,470;25,88000
 197,05;   24,870;    2,320;   -2,210;22,55000
 197,40;   26,380;    2,950;    3,920;23,43000
 197,74;   26,630;    2,460;   -1,110;24,17000
 198,09;   29,800;    0,250;    5,080;29,55000
 198,43;   29,950;    4,920;    2,110;25,03000
 198,78;   32,100;   -4,480;    1,580;36,58000
 199,12;   31,920;   -4,470;    0,300;36,39000
 199,47;   30,950;   -2,580;    4,730;33,53000
 199,81;   34,240;    2,270;    2,230;31,97000
 200,16;   29,690;   -2,680;   -2,050;32,37000
 200,50;   28,010;   -3,510;   -0,260;31,52000
 200,84;   35,280;    3,240;    3,170;32,04000
 201,19;   34,040;    1,760;    1,890;32,28000
 201,53;   33,720;   -1,180;   -2,770;34,90000
 201,88;   25,850;   -1,230;    4,320;27,08000
 202,22;   27,700;    0,470;    0,800;27,23000
 202,57;   32,050;   -4,050;    6,390;36,10000
 202,91;   25,840;   -0,600;    2,090;26,44000
 203,26;   30,250;    3,360;    1,290;26,89000
 203,60;   31,630;    1,750;    5,630;29,88000
 203,94;   31,000;    0,190;   -1,070;30,81000
 204,29;   32,860;    3,140;   -0,730;29,72000
 204,63;   34,760;    5,010;   -0,090;29,75000
 204,98;   29,250;   -4,500;    6,600;33,75000
 205,32;   34,450;    6,260;   -1,270;28,19000
 205,67;   23,590;    0,300;    4,650;23,29000
 206,01;   39,470;   -3,870;    2,660;43,34000
 206,36;   26,950;   -3,910;    7,150;30,86000
 206,70;   34,820;    0,840;    4,990;33,98000
 207,04;   36,400;   -8,930;    1,580;45,33000
 207,39;   34,660;   -9,930;   -2,780;44,59000
 207,73;   29,210;    5,020;    2,870;24,19000
 208,08;   36,240;   -2,250;    0,280;38,49000
 208,42;   29,560;   -3,960;    0,400;33,52000
 208,77;   33,070;   -6,680;    1,510;39,75000
 209,11;   36,090;   -1,400;    4,410;37,49000
 209,45;   35,270;   -1,610;   -6,000;36,88000
 209,80;   36,960;   -2,640;    2,210;39,60000
 210,14;   31,970;   -1,610;    2,850;33,58000
 210,49;   35,130;    6,300;    0,830;28,83000
 210,83;   34,190;    1,110;   -0,500;33,08000
 211,18;   31,340;   -0,550;    1,840;31,89000
 211,52;   35,140;   -7,530;   -2,050;42,67000
 211,86;   35,550;    1,350;   -0,760;34,20000
 212,21;   35,090;    1,580;   -0,850;33,51000
 212,55;   37,990;    1,260;    0,350;36,73000
 212,90;   34,010;   -1,840;    5,690;35,85000
 213,24;   38,110;   -5,320;   -0,200;43,43000
 213,59;   34,340;    3,110;    1,370;31,23000
 213,93;   38,080;    0,180;   -2,980;37,90000
 214,27;   34,950;    2,720;   -1,450;32,23000
 214,62;   35,390;    2,770;    4,640;32,62000
 214,96;   32,290;    5,600;    0,500;26,69000
 215,31;   38,010;   -0,510;    0,660;38,52000
 215,65;   37,160;   -3,300;    0,530;40,46000
 216,00;   34,700;    0,660;    3,700;34,04000
 216,34;   32,520;   -2,680;    7,630;35,20000
 216,68;   31,750;   -0,360;    2,550;32,11000
 217,03;   30,550;    1,730;   -2,950;28,82000
 217,37;   33,810;    1,830;    7,880;31,98000
 217,72;   28,900;   -1,150;   -3,170;30,05000
 218,06;   33,360;    3,880;    5,030;29,48000
 218,40;   38,270;    2,050;   -2,040;36,22000
 218,75;   32,210;   -2,330;    2,830;34,54000
 219,09;   33,510;   -2,310;    4,950;35,82000
 219,44;   36,520;    2,650;    1,680;33,87000
 219,78;   39,650;   -0,370;    0,300;40,02000
 220,12;   37,270;    0,020;   -2,360;37,25000
 220,47;   32,820;   -0,210;    0,160;33,03000
 220,81;   36,480;    1,770;    1,970;34,71000
 221,16;   34,890;    6,790;    2,430;28,10000
 221,50;   32,370;   -3,330;    0,030;35,70000
 221,84;   33,900;   -0,920;    4,400;34,82000
 222,19;   39,270;    2,190;   -1,310;37,08000
 222,53;   28,870;    0,080;    7,310;28,79000
 222,88;   41,560;   -0,380;    8,230;41,94000
 223,22;   33,390;    7,170;   -4,200;26,22000
 223,56;   34,510;    4,630;   11,460;29,88000
 223,91;   30,690;   -1,850;   -0,780;32,54000
 224,25;   40,450;    5,590;    2,120;34,86000
 224,60;   41,270;    0,510;   -1,480;40,76000
 224,94;   34,070;   -1,020;    3,330;35,09000
 225,28;   34,790;   -0,270;   -1,170;35,06000
 225,63;   35,590;   -6,880;    5,740;42,47000
 225,97;   37,380;   -2,360;    1,330;39,74000
 226,32;   35,430;   -4,330;   -0,260;39,76000
 226,66;   42,410;   -7,350;    5,090;49,76000
 227,00;   42,130;    0,790;    3,420;41,34000
 227,35;   29,120;   -0,040;   -2,020;29,16000
 227,69;   39,640;   -2,440;    1,910;42,08000
 228,04;   33,400;   -3,320;   -0,610;36,72000
 228,38;   32,890;   -6,930;   -5,470;39,82000
 228,72;   40,540;    4,010;   -3,900;36,53000
 229,07;   36,830;    1,090;    0,630;35,74000
 229,41;   30,740;    0,690;   -0,140;30,05000
 229,75;   34,180;    5,250;    4,380;28,93000
 230,10;   41,520;    1,150;   -0,170;40,37000
 230,44;   36,540;    3,190;    7,890;33,35000
 230,79;   33,620;   -2,320;   -0,360;35,94000
 231,13;   41,180;    0,500;    4,010;40,68000
 231,47;   40,490;    5,170;    3,080;35,32000
 231,82;   44,040;    4,750;    6,400;39,29000
 232,16;   35,000;    1,060;    1,390;33,94000
 232,50;   41,560;    1,020;    1,650;40,54000
 232,85;   39,320;   -2,000;   -2,240;41,32000
 233,19;   37,600;    0,280;    6,400;37,32000
 233,54;   40,930;   -1,900;    9,110;42,83000
 233,88;   45,320;    5,730;   -0,630;39,59000
 234,22;   32,180;    3,570;    3,200;28,61000
 234,57;   35,310;    1,000;   -0,350;34,31000
 234,91;   41,170;   -1,010;    3,130;42,18000
 235,25;   36,270;    0,820;    0,820;35,45000
 235,60;   37,870;    0,090;    4,420;37,78000
 235,94;   47,110;   -4,220;   -1,930;51,33000
 236,29;   42,900;   -6,810;   -3,820;49,71000
 236,63;   49,230;    1,680;   -0,440;47,55000
 236,97;   39,530;    3,160;    4,160;36,37000
 237,32;   40,780;    3,410;   -3,280;37,37000
 237,66;   40,670;    7,420;    7,650;33,25000
 238,00;   50,260;    1,770;    0,290;48,49000
 238,35;   49,540;   -2,610;   -7,850;52,15000
 238,69;   46,880;    5,740;   29,260;41,14000
 239,03;   47,410;   -0,120;   65,740;47,53000
 239,38;   51,020;   -2,220;    3,060;53,24000
 239,72;   48,580;   -3,180;    0,310;51,76000
 240,06;   46,850;   -2,940;    2,810;49,79000
 240,41;   57,760;    0,670;    0,290;57,09000
 240,75;   49,720;    5,070;    2,750;44,65000
 241,10;   65,630;   -7,380;    4,230;73,01000
 241,44;   65,480;    3,020;   -0,270;62,46000
 241,78;   54,380;   -6,130;    3,450;60,51000
 242,13;   58,580;   -3,590;   -2,120;62,17000
 242,47;   64,330;    4,880;   -4,250;59,45000
 242,81;   65,310;    2,220;    4,680;63,09000
 243,16;   70,140;   -1,210;    1,580;71,35000
 243,50;   64,120;    0,500;   -2,120;63,62000
 243,84;   71,490;   -0,710;   -1,390;72,20000
 244,19;   70,580;    5,840;    1,600;64,74000
 244,53;   61,900;    2,820;   -0,360;59,08000
 244,87;   71,860;    2,190;    6,880;69,67000
 245,22;   73,920;    0,520;    1,260;73,40000
 245,56;   81,830;   -1,040;   -5,670;82,87000
 245,90;   77,120;   -2,040;   -2,740;79,16000
 246,25;   75,530;   -0,790;    6,490;76,32000
 246,59;   87,010;    2,590;   -3,700;84,42000
 246,93;   88,980;   -2,460;    2,990;91,44000
 247,28;   88,960;    2,960;    6,300;86,00000
 247,62;   93,280;   -3,350;   -1,330;96,63000
 247,96;  103,360;   -1,370;    3,460;104,73000
 248,31;  109,340;    4,640;    0,160;104,70000
 248,65;  110,520;   -2,480;    3,570;113,00000
 248,99;  113,020;    2,980;    2,260;110,04000
 249,34;  121,760;    1,680;   -0,370;120,08000
 249,68;  129,410;   -2,100;   -2,150;131,51000
 250,02;  130,170;    0,800;    0,690;129,37000
 250,37;  133,770;   -3,820;    4,070;137,59000
 250,71;  132,140;    8,080;    0,790;124,06000
 251,05;  130,690;   -8,510;    0,850;139,20000
 251,40;  128,760;    0,870;    3,460;127,89000
 251,74;  125,180;    6,920;    1,420;118,26000
 252,08;  128,520;   -3,860;    1,190;132,38000
 252,43;  120,610;    4,350;    3,090;116,26000
 252,77;  129,220;   -3,840;   -0,850;133,06000
 253,11;  118,370;   -1,730;   -1,730;120,10000
 253,46;  118,560;    3,530;    3,910;115,03000
 253,80;  119,910;   -1,400;    7,110;121,31000
 254,14;  119,900;    3,490;   -3,160;116,41000
 254,49;  122,620;   -1,050;    0,370;123,67000
 254,83;  124,130;   -7,270;    6,060;131,40000
 255,17;  131,210;   -1,230;    0,870;132,44000
 255,52;  134,120;   -5,730;    3,320;139,85000
 255,86;  134,240;    0,010;    3,840;134,23000
 256,20;  146,180;   -0,670;    2,190;146,85000
 256,55;  161,660;    3,140;    6,800;158,52000
 256,89;  159,100;    1,680;   -0,420;157,42000
 257,23;  169,290;   -3,410;    4,740;172,70000
 257,57;  181,170;    3,540;    0,680;177,63000
 257,92;  199,290;    4,890;    9,660;194,40000
 258,26;  207,570;   -4,060;    9,410;211,63000
 258,60;  228,060;    2,480;    0,980;225,58000
 258,95;  244,390;    1,570;    1,980;242,82000
 259,29;  261,200;    3,670;    1,870;257,53000
 259,63;  282,550;   -4,430;    2,470;286,98000
 259,98;  305,330;   -2,210;    4,950;307,54000
 260,32;  338,440;    3,100;    3,060;335,34000
 260,66;  365,290;   -2,500;   -0,240;367,79000
 261,01;  404,010;    2,940;   -0,910;401,07000
 261,35;  441,670;   -3,890;    2,840;445,56000
 261,69;  471,150;   -2,560;    2,780;473,71000
 262,03;  513,680;   -0,190;    1,400;513,87000
 262,38;  524,520;    3,470;   -3,040;521,05000
 262,72;  568,750;    1,410;    1,950;567,34000
 263,06;  587,360;    0,100;    3,560;587,26000
 263,41;  600,010;   -1,350;    2,600;601,36000
 263,75;  605,870;   -5,040;    2,850;610,91000
 264,09;  614,960;   -4,180;   -0,340;619,14000
 264,44;  614,100;    3,310;   -0,250;610,79000
 264,78;  588,230;   -1,850;   -1,930;590,08000
 265,12;  585,510;    4,960;    5,230;580,55000
 265,46;  589,330;    0,600;    2,600;588,73000
 265,81;  561,400;    3,190;    1,280;558,21000
 266,15;  548,950;    4,770;    4,320;544,18000
 266,49;  539,080;    5,660;    3,370;533,42000
 266,84;  536,110;    0,280;    2,340;535,83000
 267,18;  536,590;   -6,410;    0,120;543,00000
 267,52;  532,200;    1,350;   -0,950;530,85000
 267,86;  536,540;   -1,210;    0,400;537,75000
 268,21;  533,240;   -1,260;    4,770;534,50000
 268,55;  548,080;   -1,130;    1,950;549,21000
 268,89;  550,390;    2,400;    8,760;547,99000
 269,24;  570,260;   -1,920;   -1,610;572,18000
 269,58;  583,530;    5,420;    1,950;578,11000
 269,92;  606,750;    2,840;   -3,810;603,91000
 270,26;  630,460;    5,060;    5,370;625,40000
 270,61;  651,080;   -0,230;    2,330;651,31000
 270,95;  709,130;    6,130;    2,940;703,00000
 271,29;  733,120;   -1,890;   -4,650;735,01000
 271,64;  767,440;   -4,970;   -0,820;772,41000
 271,98;  807,250;    3,740;    5,320;803,51000
 272,32;  851,060;    0,780;    2,520;850,28000
 272,66;  912,310;   -4,700;    3,640;917,01000
 273,01;  972,810;   -4,680;    3,890;977,49000
 273,35; 1011,730;   -8,380;   -2,080;1020,11000
 273,69; 1057,280;   -5,160;    7,650;1062,44000
 274,03; 1148,670;   -0,120;   -0,080;1148,79000
 274,38; 1188,270;   -0,040;    2,800;1188,31000
 274,72; 1272,200;   -2,720;    0,930;1274,92000
 275,06; 1318,340;   -0,860;    4,260;1319,20000
 275,40; 1407,290;   -4,350;    2,190;1411,64000
 275,75; 1415,310;   -2,680;   -1,670;1417,99000
 276,09; 1488,700;   -1,000;    2,750;1489,70000
 276,43; 1506,970;    2,560;    3,420;1504,41000
 276,78; 1550,320;   -0,680;    3,970;1551,00000
 277,12; 1564,190;   -2,700;    4,080;1566,89000
 277,46; 1627,140;    4,040;   -1,400;1623,10000
 277,80; 1614,820;   -3,990;    2,660;1618,81000
 278,15; 1611,070;    0,790;    0,990;1610,28000
 278,49; 1622,280;    2,880;    3,910;1619,40000
 278,83; 1589,000;    1,330;   -0,830;1587,67000
 279,17; 1597,760;    2,210;    7,910;1595,55000
 279,52; 1592,220;   -7,710;    0,670;1599,93000
 279,86; 1548,740;   -1,780;    3,730;1550,52000
 280,20; 1536,170;   -0,930;   -0,050;1537,10000
 280,54; 1536,260;    0,750;    4,110;1535,51000
 280,89; 1543,770;    2,780;    2,930;1540,99000
 281,23; 1532,010;   -2,950;    7,110;1534,96000
 281,57; 1542,920;   -3,420;    3,900;1546,34000
 281,91; 1541,500;    3,190;    9,620;1538,31000
 282,26; 1523,440;    0,600;   -0,770;1522,84000
 282,60; 1535,870;    0,530;    3,260;1535,34000
 282,94; 1551,680;   -4,930;   -6,700;1556,61000
 283,28; 1529,130;    0,510;    8,220;1528,62000
 283,63; 1567,300;   -1,720;    3,300;1569,02000
 283,97; 1571,700;    4,800;   -2,370;1566,90000
 284,31; 1565,590;   -2,080;    1,490;1567,67000
 284,65; 1607,550;   -1,330;    0,930;1608,88000
 285,00; 1615,730;   -0,720;    0,170;1616,45000
 285,34; 1643,360;   -5,460;    2,250;1648,82000
 285,68; 1696,420;    5,930;    4,600;1690,49000
 286,02; 1689,860;    2,050;    2,930;1687,81000
 286,37; 1725,680;    1,840;   -2,100;1723,84000
 286,71; 1738,270;    0,130;    9,880;1738,14000
 287,05; 1806,740;    4,750;    0,770;1801,99000
 287,39; 1822,440;   -2,940;    3,340;1825,38000
 287,73; 1858,270;    1,660;   -0,150;1856,61000
 288,08; 1870,940;    8,490;    4,200;1862,45000
 288,42; 1938,170;   -2,840;   -0,810;1941,01000
 288,76; 1974,860;   -0,210;    1,980;1975,07000
 289,10; 1994,280;   -1,230;   -2,180;1995,51000
 289,45; 2050,770;    1,800;    2,290;2048,97000
 289,79; 2098,290;    0,110;    2,270;2098,18000
 290,13; 2163,810;   -2,760;    7,880;2166,57000
 290,47; 2254,020;    0,320;   -1,950;2253,70000
 290,82; 2204,850;    2,800;    3,070;2202,05000
 291,16; 2307,530;    2,370;   -1,830;2305,16000
 291,50; 2372,640;   -1,740;   -0,810;2374,38000
 291,84; 2442,400;    6,150;   -1,240;2436,25000
 292,18; 2457,910;    2,720;    7,510;2455,19000
 292,53; 2552,010;   -3,380;    2,270;2555,39000
 292,87; 2645,630;   -8,210;    6,240;2653,84000
 293,21; 2725,110;   -6,380;   -3,400;2731,49000
 293,55; 2798,410;    0,060;    7,800;2798,35000
 293,90; 2918,260;    2,300;    1,580;2915,96000
 294,24; 2961,190;    0,430;    2,360;2960,76000
 294,58; 3097,080;    4,300;   -2,350;3092,78000
 294,92; 3219,660;   -1,710;    4,480;3221,37000
 295,26; 3289,420;   -3,490;   -0,060;3292,91000
 295,61; 3357,900;    4,230;    2,590;3353,67000
 295,95; 3445,230;    4,020;    2,900;3441,21000
 296,29; 3541,350;    9,360;    2,790;3531,99000
 296,63; 3706,940;    3,120;    1,350;3703,82000
 296,97; 3770,780;    0,130;    3,880;3770,65000
 297,32; 3922,490;   -4,260;   -4,280;3926,75000
 297,66; 3994,870;    4,560;   -0,620;3990,31000
 298,00; 4056,810;    1,400;    3,450;4055,41000
 298,34; 4115,100;   -2,880;    0,800;4117,98000
 298,69; 4255,000;    3,150;    2,400;4251,85000
 299,03; 4239,080;    0,610;    1,820;4238,47000
 299,37; 4373,090;   -3,290;   -0,940;4376,38000
 299,71; 4375,480;    0,480;   -1,460;4375,00000
 300,05; 4451,230;    1,360;   -0,590;4449,87000
 300,40; 4439,710;   -2,810;    5,780;4442,52000
 300,74; 4514,660;    0,620;    3,080;4514,04000
 301,08; 4595,660;   -2,410;    9,750;4598,07000
 301,42; 4559,430;    0,030;    0,430;4559,40000
 301,76; 4544,540;   -0,040;    3,560;4544,58000
 302,11; 4576,050;    2,500;    1,560;4573,55000
 302,45; 4576,860;    6,460;    3,060;4570,40000
 302,79; 4572,810;    7,480;   -0,070;4565,33000
 303,13; 4576,620;   -1,000;    0,920;4577,62000
 303,47; 4476,870;   -4,150;    2,590;4481,02000
 303,81; 4487,390;   -0,860;    6,370;4488,25000
 304,16; 4501,460;   -0,610;    0,950;4502,07000
 304,50; 4485,650;   -5,660;    5,220;4491,31000
 304,84; 4470,080;    6,440;    3,500;4463,64000
 305,18; 4366,890;   -1,250;    3,990;4368,14000
 305,52; 4408,410;    2,210;    0,240;4406,20000
 305,87; 4404,150;    0,610;   -3,520;4403,54000
 306,21; 4337,930;   -3,150;   -4,610;4341,08000
 306,55; 4429,170;   -1,600;    2,670;4430,77000
 306,89; 4369,910;    1,130;    2,350;4368,78000
 307,23; 4378,100;    1,720;    1,320;4376,38000
 307,58; 4248,450;   -0,810;    1,880;4249,26000
 307,92; 4283,440;   -0,410;    4,640;4283,85000
 308,26; 4321,700;   -6,760;   -1,550;4328,46000
 308,60; 4261,870;   -4,440;    1,660;4266,31000
 308,94; 4184,700;   -2,500;   -0,860;4187,20000
 309,28; 4256,740;    4,170;    3,500;4252,57000
 309,63; 4157,910;   -3,270;   -2,560;4161,18000
 309,97; 4194,210;   -2,380;   10,570;4196,59000
 310,31; 4143,910;    1,040;   -0,100;4142,87000
 310,65; 4072,730;   -0,430;    3,820;4073,16000
 310,99; 4143,970;   -0,530;    2,240;4144,50000
 311,33; 3972,220;   -3,690;    2,420;3975,91000
 311,68; 4061,260;   -1,170;    0,600;4062,43000
 312,02; 3905,720;    1,480;  -15,330;3904,24000
 312,36; 3884,930;   -1,200;   23,440;3886,13000
 312,70; 3881,150;    0,750;   61,440;3880,40000
 313,04; 3830,680;    1,470;    1,810;3829,21000
 313,38; 3664,810;   -5,760;   -3,880;3670,57000
 313,73; 3671,980;   -5,440;   -2,470;3677,42000
 314,07; 3608,280;    0,820;    5,190;3607,46000
 314,41; 3578,880;    1,040;    4,040;3577,84000
 314,75; 3502,930;    4,640;    5,810;3498,29000
